AUTOCAL calibration, spectrum AB060818_Ba133_10cm.spe,  .sou file: ba133.sou
1    283.3618      0.0442        6912         103     53.1560      0.0050         348           7
1    857.8227      0.2107        1831          81    160.6090      0.0250         105           3
1   1191.7634      0.2176         851          49    223.1160      0.0350          71           2
1   1475.7119      0.0264       12343         114    276.4040      0.0070        1130          20
1   1616.9105      0.0169       29169         172    302.8580      0.0050        2920          30
1   1900.6493      0.0100       87235         296    356.0140      0.0090       10000          30
1   2049.1086      0.0294       11718         111    383.8590      0.0090        1450          20
1    650.1187      0.0083       89305         303    121.7830      0.0020       13620         160
1   1306.3516      0.0252       15212         130    244.6920      0.0020        3590          60
1   1579.9984      0.1328         644          35    295.9390      0.0080         211           5
1   1837.9374      0.0150       42089         208    344.2760      0.0040       12750          90
1   1963.1244      0.1864        1317          49    367.7890      0.0050         405           8
1   2194.5684      0.0846        2968          62    411.1150      0.0050        1070          10
1   2370.0659      0.0675        3772          68    443.9760      0.0050        1480          20
1   2608.8716      0.3997         523          38    488.6610      0.0390         195           2
1   3009.9836      0.2947         418          34    564.0210      0.0080         236           5
1   3128.6223      0.3155         438          33    586.2940      0.0060         220           5
1   3621.8599      0.5432         369          34    678.5780      0.0030         221           4
1   3675.8154      0.2041         744          36    688.6780      0.0060         400           8
1   4157.2539      0.0481       10052         106    778.9030      0.0060        6190          80
1   4629.4746      0.1211        2797          63    867.3880      0.0080        1990          40
1   5145.2515      0.0558        9011         101    964.1310      0.0090        6920          90
1   5363.8965      0.4541         430          32   1005.2790      0.0170         310           7
1   6473.4346      0.2865         728          33   1212.9500      0.0120         670           8
1   6934.0039      0.1282         439          23   1299.1240      0.0120         780          10
1   7514.7036      0.0730        8186         101   1408.0110      0.0140       10000          30
1    170.2580      0.0156       35772         207     31.8170      0.0010           6           0
1   3531.7202      0.0097      158880         401    661.6570      0.0030          85           0
